GT170 GHz magnetic field and derivatives for I1,..,I5=61.56 66.45 113.43 108.09  [A]
------------------------------------------------------------- 
Cathode is located in z_cat=0.136 [m] 
Cavity  is located in z_cav=0.49967 [m] 
 z [m]   Bz [T]   dBz/dz [T/m]    d2Bz/dz2 [T/m2]   Bz(r=25mm)   Br(r=25mm)   dBz/dz(r=25mm)  dBz/dr(r=25mm)   
 -----   ------   ------------    ---------------   ----------   ----------   --------------  --------------   
 0.00000    0.24297      0.36003       -7.59886      0.24416      -0.00464       0.38262       0.09481   
 0.00100    0.24333      0.35236       -7.73996      0.24454      -0.00454       0.37497       0.09666   
 0.00200    0.24368      0.34455       -7.88105      0.24491      -0.00445       0.36718       0.09851   
 0.00300    0.24402      0.33660       -8.02204      0.24527      -0.00435       0.35923       0.10037   
 0.00400    0.24435      0.32851       -8.16284      0.24563      -0.00425       0.35112       0.10223   
 0.00500    0.24467      0.32027       -8.30332      0.24597      -0.00414       0.34286       0.10409   
 0.00600    0.24499      0.31190       -8.44340      0.24631      -0.00404       0.33444       0.10595   
 0.00700    0.24530      0.30339       -8.58296      0.24664      -0.00393       0.32586       0.10780   
 0.00800    0.24560      0.29474       -8.72188      0.24696      -0.00382       0.31712       0.10965   
 0.00900    0.24589      0.28594       -8.86004      0.24728      -0.00371       0.30823       0.11150   
 0.01000    0.24617      0.27702       -8.99732      0.24758      -0.00360       0.29918       0.11334   
 0.01100    0.24644      0.26795       -9.13359      0.24787      -0.00349       0.28997       0.11517   
 0.01200    0.24670      0.25875       -9.26872      0.24816      -0.00337       0.28061       0.11699   
 0.01300    0.24696      0.24941       -9.40258      0.24844      -0.00325       0.27109       0.11880   
 0.01400    0.24720      0.23994       -9.53502      0.24870      -0.00313       0.26142       0.12060   
 0.01500    0.24744      0.23034       -9.66589      0.24896      -0.00301       0.25159       0.12238   
 0.01600    0.24766      0.22061       -9.79505      0.24921      -0.00289       0.24161       0.12414   
 0.01700    0.24788      0.21075       -9.92235      0.24944      -0.00276       0.23147       0.12589   
 0.01800    0.24809      0.20077      -10.04762      0.24967      -0.00264       0.22119       0.12762   
 0.01900    0.24828      0.19066      -10.17069      0.24988      -0.00251       0.21075       0.12932   
 0.02000    0.24847      0.18043      -10.29141      0.25009      -0.00238       0.20016       0.13099   
 0.02100    0.24864      0.17008      -10.40960      0.25028      -0.00224       0.18943       0.13264   
 0.02200    0.24881      0.15961      -10.52508      0.25047      -0.00211       0.17856       0.13427   
 0.02300    0.24896      0.14903      -10.63767      0.25064      -0.00198       0.16754       0.13586   
 0.02400    0.24910      0.13834      -10.74719      0.25080      -0.00184       0.15638       0.13741   
 0.02500    0.24924      0.12754      -10.85343      0.25095      -0.00170       0.14508       0.13893   
 0.02600    0.24936      0.11663      -10.95622      0.25109      -0.00156       0.13365       0.14041   
 0.02700    0.24947      0.10562      -11.05534      0.25122      -0.00142       0.12208       0.14185   
 0.02800    0.24957      0.09452      -11.15058      0.25134      -0.00128       0.11039       0.14325   
 0.02900    0.24966      0.08332      -11.24175      0.25144      -0.00113       0.09857       0.14460   
 0.03000    0.24974      0.07204      -11.32863      0.25153      -0.00099       0.08662       0.14590   
 0.03100    0.24980      0.06067      -11.41099      0.25162      -0.00084       0.07456       0.14715   
 0.03200    0.24986      0.04922      -11.48862      0.25168      -0.00069       0.06238       0.14834   
 0.03300    0.24990      0.03769      -11.56129      0.25174      -0.00055       0.05008       0.14948   
 0.03400    0.24993      0.02610      -11.62876      0.25178      -0.00040       0.03769       0.15055   
 0.03500    0.24995      0.01444      -11.69079      0.25182      -0.00024       0.02518       0.15157   
 0.03600    0.24996      0.00272      -11.74716      0.25183      -0.00009       0.01259       0.15251   
 0.03700    0.24996     -0.00905      -11.79761      0.25184       0.00006      -0.00011       0.15339   
 0.03800    0.24994     -0.02088      -11.84189      0.25183       0.00021      -0.01288       0.15419   
 0.03900    0.24992     -0.03274      -11.87975      0.25181       0.00037      -0.02574       0.15492   
 0.04000    0.24988     -0.04463      -11.91094      0.25178       0.00052      -0.03868       0.15556   
 0.04100    0.24983     -0.05656      -11.93519      0.25174       0.00068      -0.05168       0.15613   
 0.04200    0.24977     -0.06850      -11.95223      0.25168       0.00084      -0.06475       0.15661   
 0.04300    0.24969     -0.08046      -11.96181      0.25161       0.00099      -0.07788       0.15699   
 0.04400    0.24961     -0.09242      -11.96365      0.25152       0.00115      -0.09105       0.15729   
 0.04500    0.24951     -0.10438      -11.95747      0.25143       0.00131      -0.10427       0.15749   
 0.04600    0.24940     -0.11633      -11.94300      0.25131       0.00147      -0.11752       0.15758   
 0.04700    0.24927     -0.12827      -11.91995      0.25119       0.00162      -0.13079       0.15758   
 0.04800    0.24914     -0.14017      -11.88804      0.25105       0.00178      -0.14409       0.15746   
 0.04900    0.24899     -0.15204      -11.84699      0.25090       0.00194      -0.15739       0.15724   
 0.05000    0.24884     -0.16386      -11.79649      0.25074       0.00209      -0.17069       0.15690   
 0.05100    0.24867     -0.17563      -11.73627      0.25056       0.00225      -0.18399       0.15644   
 0.05200    0.24848     -0.18733      -11.66603      0.25037       0.00241      -0.19727       0.15585   
 0.05300    0.24829     -0.19896      -11.58547      0.25017       0.00256      -0.21052       0.15514   
 0.05400    0.24809     -0.21050      -11.49429      0.24995       0.00272      -0.22373       0.15430   
 0.05500    0.24787     -0.22194      -11.39219      0.24972       0.00287      -0.23690       0.15332   
 0.05600    0.24764     -0.23328      -11.27887      0.24948       0.00302      -0.25000       0.15221   
 0.05700    0.24740     -0.24450      -11.15403      0.24922       0.00318      -0.26304       0.15095   
 0.05800    0.24715     -0.25558      -11.01736      0.24895       0.00333      -0.27599       0.14955   
 0.05900    0.24689     -0.26653      -10.86856      0.24867       0.00348      -0.28885       0.14799   
 0.06000    0.24662     -0.27732      -10.70732      0.24837       0.00362      -0.30160       0.14628   
 0.06100    0.24634     -0.28794      -10.53333      0.24806       0.00377      -0.31424       0.14441   
 0.06200    0.24605     -0.29838      -10.34630      0.24774       0.00391      -0.32674       0.14238   
 0.06300    0.24574     -0.30863      -10.14590      0.24741       0.00405      -0.33910       0.14018   
 0.06400    0.24543     -0.31867       -9.93184      0.24707       0.00419      -0.35130       0.13781   
 0.06500    0.24510     -0.32848       -9.70381      0.24671       0.00433      -0.36333       0.13526   
 0.06600    0.24477     -0.33807       -9.46151      0.24634       0.00446      -0.37518       0.13254   
 0.06700    0.24443     -0.34740       -9.20462      0.24596       0.00459      -0.38682       0.12963   
 0.06800    0.24408     -0.35647       -8.93286      0.24557       0.00472      -0.39825       0.12653   
 0.06900    0.24372     -0.36526       -8.64590      0.24516       0.00485      -0.40945       0.12324   
 0.07000    0.24335     -0.37376       -8.34346      0.24475       0.00497      -0.42040       0.11976   
 0.07100    0.24297     -0.38194       -8.02523      0.24432       0.00509      -0.43109       0.11608   
 0.07200    0.24258     -0.38980       -7.69093      0.24388       0.00520      -0.44150       0.11219   
 0.07300    0.24219     -0.39732       -7.34025      0.24344       0.00531      -0.45161       0.10810   
 0.07400    0.24179     -0.40448       -6.97290      0.24298       0.00542      -0.46142       0.10380   
 0.07500    0.24138     -0.41126       -6.58859      0.24251       0.00552      -0.47089       0.09928   
 0.07600    0.24097     -0.41765       -6.18705      0.24204       0.00561      -0.48002       0.09454   
 0.07700    0.24054     -0.42363       -5.76798      0.24155       0.00571      -0.48878       0.08958   
 0.07800    0.24012     -0.42918       -5.33112      0.24106       0.00579      -0.49716       0.08440   
 0.07900    0.23969     -0.43429       -4.87617      0.24056       0.00587      -0.50513       0.07898   
 0.08000    0.23925     -0.43893       -4.40288      0.24005       0.00595      -0.51269       0.07333   
 0.08100    0.23881     -0.44309       -3.91098      0.23954       0.00602      -0.51980       0.06744   
 0.08200    0.23836     -0.44674       -3.40020      0.23901       0.00609      -0.52646       0.06131   
 0.08300    0.23792     -0.44988       -2.87028      0.23848       0.00614      -0.53264       0.05494   
 0.08400    0.23746     -0.45248       -2.32098      0.23795       0.00620      -0.53832       0.04832   
 0.08500    0.23701     -0.45451       -1.75205      0.23741       0.00624      -0.54348       0.04145   
 0.08600    0.23656     -0.45597       -1.16325      0.23686       0.00628      -0.54809       0.03433   
 0.08700    0.23610     -0.45683       -0.55433      0.23631       0.00631      -0.55215       0.02695   
 0.08800    0.23564     -0.45708        0.07493      0.23576       0.00633      -0.55563       0.01931   
 0.08900    0.23518     -0.45668        0.72475      0.23520       0.00635      -0.55850       0.01140   
 0.09000    0.23473     -0.45562        1.39536      0.23464       0.00635      -0.56074       0.00323   
 0.09100    0.23427     -0.45388        2.08697      0.23408       0.00635      -0.56234      -0.00521   
 0.09200    0.23382     -0.45144        2.79978      0.23352       0.00634      -0.56327      -0.01392   
 0.09300    0.23337     -0.44827        3.53399      0.23295       0.00633      -0.56351      -0.02291   
 0.09400    0.23292     -0.44436        4.28980      0.23239       0.00630      -0.56303      -0.03217   
 0.09500    0.23248     -0.43969        5.06738      0.23183       0.00626      -0.56181      -0.04171   
 0.09600    0.23205     -0.43422        5.86693      0.23126       0.00622      -0.55984      -0.05154   
 0.09700    0.23161     -0.42795        6.68860      0.23071       0.00616      -0.55708      -0.06164   
 0.09800    0.23119     -0.42084        7.53257      0.23015       0.00609      -0.55351      -0.07204   
 0.09900    0.23077     -0.41287        8.39899      0.22960       0.00601      -0.54912      -0.08272   
 0.10000    0.23036     -0.40403        9.28801      0.22905       0.00593      -0.54387      -0.09369   
 0.10100    0.22997     -0.39429       10.19976      0.22851       0.00583      -0.53774      -0.10496   
 0.10200    0.22958     -0.38362       11.13439      0.22798       0.00572      -0.53070      -0.11651   
 0.10300    0.22920     -0.37201       12.09202      0.22745       0.00559      -0.52274      -0.12837   
 0.10400    0.22883     -0.35943       13.07277      0.22693       0.00546      -0.51383      -0.14052   
 0.10500    0.22848     -0.34586       14.07674      0.22642       0.00531      -0.50395      -0.15297   
 0.10600    0.22814     -0.33127       15.10404      0.22593       0.00515      -0.49306      -0.16572   
 0.10700    0.22782     -0.31564       16.15475      0.22544       0.00498      -0.48115      -0.17877   
 0.10800    0.22751     -0.29895       17.22897      0.22496       0.00480      -0.46819      -0.19212   
 0.10900    0.22722     -0.28118       18.32678      0.22450       0.00460      -0.45416      -0.20577   
 0.11000    0.22695     -0.26229       19.44823      0.22406       0.00438      -0.43903      -0.21973   
 0.11100    0.22670     -0.24227       20.59339      0.22362       0.00416      -0.42277      -0.23400   
 0.11200    0.22646     -0.22110       21.76231      0.22321       0.00392      -0.40536      -0.24856   
 0.11300    0.22625     -0.19874       22.95504      0.22281       0.00366      -0.38678      -0.26344   
 0.11400    0.22607     -0.17518       24.17160      0.22244       0.00339      -0.36700      -0.27862   
 0.11500    0.22590     -0.15039       25.41203      0.22208       0.00310      -0.34599      -0.29411   
 0.11600    0.22577     -0.12435       26.67633      0.22175       0.00280      -0.32373      -0.30990   
 0.11700    0.22566     -0.09703       27.96453      0.22143       0.00248      -0.30020      -0.32601   
 0.11800    0.22557     -0.06841       29.27661      0.22115       0.00215      -0.27537      -0.34242   
 0.11900    0.22552     -0.03847       30.61257      0.22088       0.00180      -0.24921      -0.35913   
 0.12000    0.22550     -0.00718       31.97240      0.22065       0.00143      -0.22170      -0.37615   
 0.12100    0.22551      0.02548       33.35605      0.22044       0.00105      -0.19281      -0.39348   
 0.12200    0.22555      0.05954       34.76351      0.22026       0.00064      -0.16252      -0.41112   
 0.12300    0.22563      0.09502       36.19472      0.22012       0.00022      -0.13081      -0.42906   
 0.12400    0.22574      0.13194       37.64964      0.22000      -0.00022      -0.09764      -0.44731   
 0.12500    0.22589      0.17033       39.12819      0.21992      -0.00067      -0.06300      -0.46586   
 0.12600    0.22608      0.21020       40.63031      0.21988      -0.00115      -0.02685      -0.48471   
 0.12700    0.22631      0.25160       42.15593      0.21987      -0.00164       0.01082      -0.50387   
 0.12800    0.22658      0.29452       43.70494      0.21990      -0.00215       0.05005      -0.52332   
 0.12900    0.22690      0.33901       45.27725      0.21997      -0.00269       0.09085      -0.54308   
 0.13000    0.22726      0.38509       46.87275      0.22008      -0.00324       0.13325      -0.56314   
 0.13100    0.22767      0.43277       48.49133      0.22024      -0.00381       0.17728      -0.58349   
 0.13200    0.22813      0.48208       50.13286      0.22044      -0.00441       0.22295      -0.60414   
 0.13300    0.22864      0.53304       51.79720      0.22068      -0.00502       0.27030      -0.62508   
 0.13400    0.22919      0.58568       53.48421      0.22098      -0.00566       0.31935      -0.64632   
 0.13500    0.22981      0.64002       55.19372      0.22132      -0.00632       0.37013      -0.66785   
 0.13600    0.23048      0.69607       56.92559      0.22172      -0.00699       0.42265      -0.68966   
 0.13700    0.23120      0.75387       58.67962      0.22217      -0.00769       0.47694      -0.71177   
 0.13800    0.23198      0.81344       60.45564      0.22267      -0.00842       0.53302      -0.73415   
 0.13900    0.23283      0.87479       62.25345      0.22323      -0.00916       0.59092      -0.75682   
 0.14000    0.23373      0.93795       64.07283      0.22385      -0.00993       0.65066      -0.77977   
 0.14100    0.23470      1.00295       65.91358      0.22454      -0.01072       0.71227      -0.80300   
 0.14200    0.23574      1.06979       67.77546      0.22528      -0.01154       0.77576      -0.82650   
 0.14300    0.23684      1.13850       69.65824      0.22609      -0.01238       0.84116      -0.85028   
 0.14400    0.23802      1.20911       71.56166      0.22696      -0.01324       0.90849      -0.87432   
 0.14500    0.23926      1.28163       73.48547      0.22791      -0.01412       0.97778      -0.89863   
 0.14600    0.24058      1.35609       75.42937      0.22892      -0.01504       1.04904      -0.92320   
 0.14700    0.24198      1.43250       77.39310      0.23000      -0.01597       1.12230      -0.94803   
 0.14800    0.24345      1.51088       79.37634      0.23116      -0.01693       1.19758      -0.97312   
 0.14900    0.24500      1.59126       81.37880      0.23240      -0.01792       1.27490      -0.99846   
 0.15000    0.24663      1.67365       83.40013      0.23371      -0.01893       1.35428      -1.02405   
 0.15100    0.24835      1.75806       85.44001      0.23511      -0.01997       1.43575      -1.04988   
 0.15200    0.25015      1.84453       87.49808      0.23659      -0.02103       1.51932      -1.07596   
 0.15300    0.25204      1.93307       89.57398      0.23815      -0.02212       1.60501      -1.10227   
 0.15400    0.25401      2.02369       91.66733      0.23980      -0.02323       1.69284      -1.12881   
 0.15500    0.25608      2.11641       93.77773      0.24153      -0.02438       1.78284      -1.15558   
 0.15600    0.25825      2.21125       95.90477      0.24336      -0.02554       1.87502      -1.18258   
 0.15700    0.26051      2.30822       98.04802      0.24529      -0.02674       1.96940      -1.20979   
 0.15800    0.26287      2.40735      100.20706      0.24730      -0.02796       2.06599      -1.23721   
 0.15900    0.26532      2.50864      102.38142      0.24942      -0.02922       2.16483      -1.26484   
 0.16000    0.26788      2.61212      104.57062      0.25163      -0.03049       2.26592      -1.29268   
 0.16100    0.27055      2.71779      106.77419      0.25395      -0.03180       2.36928      -1.32071   
 0.16200    0.27332      2.82567      108.99161      0.25637      -0.03314       2.47493      -1.34893   
 0.16300    0.27620      2.93577      111.22236      0.25890      -0.03450       2.58289      -1.37733   
 0.16400    0.27919      3.04812      113.46590      0.26154      -0.03589       2.69316      -1.40591   
 0.16500    0.28230      3.16271      115.72167      0.26429      -0.03731       2.80578      -1.43466   
 0.16600    0.28552      3.27957      117.98910      0.26715      -0.03876       2.92074      -1.46358   
 0.16700    0.28886      3.39869      120.26758      0.27013      -0.04024       3.03807      -1.49265   
 0.16800    0.29232      3.52010      122.55651      0.27323      -0.04174       3.15778      -1.52188   
 0.16900    0.29590      3.64381      124.85525      0.27645      -0.04328       3.27988      -1.55124   
 0.17000    0.29960      3.76982      127.16314      0.27979      -0.04485       3.40439      -1.58074   
 0.17100    0.30344      3.89814      129.47952      0.28326      -0.04644       3.53131      -1.61036   
 0.17200    0.30740      4.02878      131.80369      0.28685      -0.04807       3.66066      -1.64011   
 0.17300    0.31150      4.16175      134.13494      0.29058      -0.04972       3.79246      -1.66996   
 0.17400    0.31573      4.29705      136.47253      0.29444      -0.05141       3.92670      -1.69991   
 0.17500    0.32009      4.43469      138.81572      0.29843      -0.05312       4.06340      -1.72995   
 0.17600    0.32460      4.57468      141.16372      0.30257      -0.05487       4.20257      -1.76008   
 0.17700    0.32924      4.71702      143.51575      0.30684      -0.05664       4.34421      -1.79027   
 0.17800    0.33403      4.86172      145.87098      0.31126      -0.05845       4.48834      -1.82053   
 0.17900    0.33897      5.00877      148.22859      0.31582      -0.06028       4.63495      -1.85083   
 0.18000    0.34405      5.15817      150.58770      0.32053      -0.06215       4.78406      -1.88118   
 0.18100    0.34928      5.30994      152.94745      0.32539      -0.06405       4.93567      -1.91156   
 0.18200    0.35467      5.46407      155.30694      0.33040      -0.06597       5.08977      -1.94195   
 0.18300    0.36021      5.62056      157.66523      0.33557      -0.06793       5.24639      -1.97235   
